#Wave		#Intensity
3000.64844	172.0079
2999.91016	40.3064
2999.17188	-40.55533
2998.43359	139.33467
2997.69531	204.04318
2996.95703	140.09335
2996.21875	147.22751
2995.47949	161.11362
2994.74023	202.04996
2994.00098	178.69618
2993.26172	162.10526
2992.52246	273.99737
2991.7832	176.24265
2991.04394	237.37352
2990.30371	217.3642
2989.56348	288.57953
2988.82422	275.30987
2988.08398	248.52188
2987.34375	231.86501
2986.60254	279.35086
2985.86231	289.68149
2985.12109	178.49222
2984.38086	249.55901
2983.63965	141.77242
2982.89844	307.2482
2982.15723	216.3347
2981.41602	226.60518
2980.67481	102.00637
2979.93262	193.17001
2979.19141	200.04048
2978.44922	183.308
2977.70703	116.0377
2976.96484	112.78085
2976.22266	149.92828
2975.47949	89.40221
2974.73731	5.32687
2973.99414	241.02853
2973.25195	140.1106
2972.50879	187.26111
2971.76563	207.47218
2971.02246	180.57802
2970.2793	180.58643
2969.53516	180.58101
2968.79199	177.20834
2968.04785	183.9059
2967.30371	170.42879
2966.55957	106.54994
2965.81543	200.56561
2965.07129	183.70456
2964.32617	139.97192
2963.58203	66.03336
2962.83691	180.0845
2962.0918	112.85355
2961.34766	79.19644
2960.60254	142.82938
2959.85644	92.37888
2959.11133	75.47791
2958.36523	219.51579
2957.62012	48.36441
2956.87402	31.44592
2956.12793	64.79194
2955.38184	155.07642
2954.63574	61.06666
2953.88965	101.05733
2953.14258	144.36752
2952.39648	127.38868
2951.64941	127.13921
2950.90234	314.31
2950.15527	139.99504
2949.4082	410.71851
2948.66113	333.43787
2947.91309	463.53171
2947.16602	513.31793
2946.41797	472.80151
2945.66992	522.54254
2944.92188	582.28113
2944.17383	631.96301
2943.42578	604.77594
2942.67676	577.58368
2941.92871	550.3952
2941.17969	493.14984
2940.43066	512.69904
2939.68164	488.8385
2938.93262	495.01114
2938.18359	474.47772
2937.43457	497.30936
2936.68457	426.72571
2935.93457	409.51385
2935.18555	432.3125
2934.43555	431.75217
2933.68555	424.51526
2932.93457	497.24228
2932.18457	519.96027
2931.43359	595.95264
2930.68359	442.10333
2929.93262	344.90341
2929.18164	354.26654
2928.43066	400.23138
2927.67969	306.3873
2926.92773	245.83673
2926.17676	98.80244
2925.42481	254.49902
2924.67383	87.54048
2923.92188	189.95874
2923.16992	119.45552
2922.41699	205.18411
2921.66504	118.06517
2920.91309	64.19329
2920.16016	159.81743
2919.40723	142.46626
2918.6543	171.60172
2917.90137	77.86659
2917.14844	130.21814
2916.39551	39.82102
2915.6416	118.67997
2914.88867	78.06243
2914.13477	97.15295
2913.38086	112.90852
2912.62695	42.43095
2911.87305	164.26013
2911.11914	150.12727
2910.36426	106.15528
2909.61035	158.28647
2908.85547	31.48169
2908.10059	100.1409
2907.3457	105.84016
2906.59082	197.61557
2905.83594	87.4023
2905.08008	126.15987
2904.32519	78.85382
2903.56934	87.79675
2902.81348	119.88142
2902.05762	69.25451
2901.30176	250.11867
2900.5459	156.48071
2899.78906	171.94824
2899.0332	94.86043
2898.27637	80.56921
2897.51953	132.34915
2896.76269	81.69621
2896.00586	159.85461
2895.24902	158.72244
2894.49121	88.24193
2893.73438	146.51498
2892.97656	135.44342
2892.21875	91.36706
2891.46094	-8.78965
2890.70313	128.56787
2889.94531	137.24623
2889.1875	103.04488
2888.42871	68.8383
2887.66992	126.9215
2886.91211	-9.45491
2886.15332	48.59672
2885.39453	116.49764
2884.63477	138.24474
2883.87598	84.23714
2883.11621	13.76914
2882.35742	167.16486
2881.59766	-25.0929
2880.83789	65.70129
2880.07813	54.45902
2879.31836	59.65537
2878.55762	22.0769
2877.79785	60.13446
2877.03711	147.47414
2876.27637	119.72353
2875.51563	137.9803
2874.75488	106.93046
2873.99414	85.73499
2873.23242	57.95966
2872.47168	128.70764
2871.70996	130.45981
2870.94824	105.93588
2870.18652	71.56165
2869.42481	76.56646
2868.66309	52.02744
2867.90137	-15.16052
2867.13867	84.92698
2866.37598	116.1018
2865.61426	2.99985
2864.85156	234.11015
2864.08887	48.89343
2863.32519	60.33333
2862.5625	29.17147
2861.79883	-11.82491
2861.03613	38.88652
2860.27246	73.1883
2859.50879	-46.40397
2858.74512	27.15292
2857.98047	67.9376
2857.2168	98.88416
2856.45313	-7.59231
2855.68848	13.51183
2854.92383	34.59498
2854.15918	42.57862
2853.39453	27.66306
2852.62988	-33.01781
2851.86426	27.21233
2851.09961	64.54279
2850.33398	10.37524
2849.56836	73.78996
2848.80273	0.0213
2848.03711	4.62125
2847.27148	45.11225
2846.50488	-51.5026
2845.73926	37.90167
2844.97266	42.43074
2844.20606	-34.60039
2843.43945	-56.1765
2842.67285	-12.54636
2841.90625	-21.106
2841.13965	-16.63851
2840.37207	-2.41642
2839.60449	106.27464
2838.83691	3.16743
2838.06934	-44.54665
2837.30176	31.48663
2836.53418	97.71085
2835.7666	23.92228
2834.99805	2.21448
2834.22949	9.78678
2833.46094	66.14369
2832.69238	-36.92256
2831.92383	87.69101
2831.15527	-44.63411
2830.38574	105.90868
2829.61719	-55.6533
2828.84766	-96.93263
2828.07813	-27.73669
2827.30859	-10.55854
2826.53906	91.04821
2825.76953	-28.22321
2824.99902	47.33947
2824.22949	-6.98353
2823.45898	100.97551
2822.68848	14.17676
2821.91797	57.17418
2821.14746	70.94649
2820.37695	-32.05831
2819.60547	114.63952
2818.83398	-11.0658
2818.06348	73.9639
2817.29199	58.4736
2816.52051	-73.67612
2815.74902	105.21894
2814.97656	-4.25305
2814.20508	2.89363
2813.43262	45.63316
2812.66016	-2.30246
2811.88769	85.70686
2811.11523	-43.15078
2810.34277	-42.55483
2809.57031	-25.79926
2808.79688	-2.60291
2808.02441	-37.63021
2807.25098	59.89246
2806.47754	-43.05363
2805.7041	25.31677
2804.92969	51.63229
2804.15625	-48.06933
2803.38281	97.74339
2802.6084	52.93581
2801.83398	-17.70235
2801.05957	2.06535
2800.28516	92.82201
2799.51074	51.21509
2798.73535	-22.66466
2797.96094	42.19296
2797.18555	-38.13905
2796.41016	-2.36331
2795.63477	88.19584
2794.85938	-98.52559
2794.08398	37.10984
2793.30762	11.55069
2792.53223	92.31396
2791.75586	-62.12668
2790.97949	28.24427
2790.20313	-39.2165
2789.42676	99.3782
2788.65039	-64.66806
2787.87305	70.62344
2787.09668	3.14286
2786.31934	-22.51369
2785.54199	19.37023
2784.76465	74.08683
2783.98731	86.96864
2783.20898	19.45434
2782.43164	-25.54422
2781.65332	38.71096
2780.87598	25.82344
2780.09766	102.86342
2779.31934	-80.29334
2778.54004	76.97779
2777.76172	64.02221
2776.9834	44.63572
2776.2041	5.97659
2775.42481	150.21729
2774.64551	37.73232
2773.86621	98.48406
2773.08691	123.92027
2772.30664	46.71767
2771.52734	113.79813
2770.74707	62.23581
2769.9668	-27.77935
2769.18652	64.85395
2768.40625	13.28122
2767.62598	57.79734
2766.84473	-9.80679
2766.06445	-29.36886
2765.2832	-4.13229
2764.50195	-14.12678
2763.7207	1.4653
2762.93945	-2.16053
2762.1582	45.37855
2761.37598	19.31812
2760.59473	-13.13581
2759.8125	152.60951
2759.03027	36.99622
2758.24805	-33.84951
2757.46582	67.85456
2756.68262	28.93424
2755.90039	-176.0688
2755.11719	30.93041
2754.33398	-75.06047
2753.55176	36.05148
2752.76758	73.68152
2751.98438	-51.45477
2751.20117	56.34286
2750.41699	-87.92487
2749.63379	125.05281
2748.84961	73.26463
2748.06543	88.42908
2747.28125	-27.11694
2746.49609	64.5049
2745.71191	41.37627
2744.92676	-32.74107
2744.14258	-8.09959
2743.35742	6.95376
2742.57227	47.45668
2741.78711	14.70946
2741.00098	58.33612
2740.21582	-47.62582
2739.42969	18.23358
2738.64356	45.87936
2737.85742	105.30199
2737.07129	88.36913
2736.28516	-49.38676
2735.49902	73.54284
2734.71191	34.31846
2733.92578	39.58506
2733.13867	159.19299
2732.35156	62.74902
2731.56445	80.65011
2730.77637	79.46758
2729.98926	163.99013
2729.20117	143.71393
2728.41406	82.18284
2727.62598	42.85781
2726.83789	146.27959
2726.04981	141.81021
2725.26074	150.00037
2724.47266	151.838
2723.68359	182.17737
2722.89551	57.20231
2722.10644	20.97041
2721.31738	111.45807
2720.52734	18.17024
2719.73828	-2.25261
2718.94922	103.9679
2718.15918	200.62499
2717.36914	-6.62688
2716.5791	-106.22398
2715.78906	129.58049
2714.99902	-14.32822
2714.20801	-3.23268
2713.41797	77.41901
2712.62695	113.75091
2711.83594	-1.6793
2711.04492	-28.59134
2710.25391	29.8053
2709.46289	75.52525
2708.6709	-5.14729
2707.87988	43.68407
2707.08789	73.52498
2706.2959	52.82559
2705.50391	35.27217
2704.71191	74.51094
2703.91894	63.22466
2703.12695	20.38786
2702.33398	46.92781
2701.54102	63.9791
2700.74805	30.56052
2699.95508	-56.45269
2699.16211	-7.92944
2698.36914	78.37049
2697.57519	-68.52703
2696.78125	80.70436
2695.98828	195.22899
2695.19434	133.35271
2694.39941	71.47145
2693.60547	22.19445
2692.81152	89.3566
2692.0166	71.51221
2691.22168	9.61423
2690.42676	89.25691
2689.63184	49.35427
2688.83691	44.03254
2688.04199	-83.9019
2687.24609	74.18741
2686.45019	9.09437
2685.6543	132.51109
2684.8584	10.85312
2684.0625	21.12555
2683.2666	9.39551
2682.4707	51.02091
2681.67383	58.07507
2680.87695	109.04296
2680.08008	21.9165
2679.2832	-27.55188
2678.48633	-14.2909
2677.68945	114.97457
2676.8916	-66.2335
2676.09473	-18.54747
2675.29688	13.42081
2674.49902	-1.64507
2673.70117	-38.65552
2672.90234	-19.29817
2672.10449	97.12957
2671.30664	16.22671
2670.50781	104.3803
2669.70898	57.88854
2668.91016	70.85517
2668.11133	83.79777
2667.31152	49.78126
2666.51269	-12.38139
2665.71289	34.90012
2664.91309	28.99296
2664.11426	-61.32302
2663.31348	79.63506
2662.51367	79.91452
2661.71387	2.06801
2660.91309	177.23772
2660.11328	-47.42181
2659.3125	15.24268
2658.51172	-78.23158
2657.71094	40.56044
2656.90918	106.22517
2656.1084	0.24672
2655.30664	-40.2109
2654.50488	103.34891
2653.70313	-68.12637
2652.90137	100.28855
2652.09961	13.00455
2651.29785	41.05117
2650.49512	84.63744
2649.69336	-33.80931
2648.89063	-15.18449
2648.08789	65.70081
2647.28516	6.41565
2646.48144	-34.19869
2645.67871	43.47279
2644.875	55.73155
2644.07129	15.07099
2643.26758	70.84292
2642.46387	120.35347
2641.66016	-91.39125
2640.85644	88.67515
2640.05176	13.74119
2639.24805	-26.986
2638.44336	168.43338
2637.63867	43.75706
2636.83398	121.01286
2636.02832	164.0462
2635.22363	33.16988
2634.41797	116.52196
2633.61231	-85.73859
2632.80762	41.0219
2632.00098	-49.50116
2631.19531	-19.01419
2630.38965	175.82617
2629.58301	41.85323
2628.77734	214.86569
2627.9707	71.59529
2627.16406	-49.94702
2626.35742	51.6428
2625.54981	-48.21565
2624.74316	31.61201
2623.93555	83.5055
2623.12891	39.38176
2622.32129	115.97981
2621.51367	183.24284
2620.70508	77.14774
2619.89746	97.94043
2619.08887	1.14006
2618.28125	96.12839
2617.47266	-71.80087
2616.66406	60.21384
2615.85547	6.68691
2615.0459	52.04719
2614.23731	140.642
2613.42773	-30.34331
2612.61816	76.71389
2611.80957	121.95561
2610.99902	40.53954
2610.18945	-43.94227
2609.37988	96.90624
2608.56934	-21.55433
2607.75977	230.27071
2606.94922	-48.62404
2606.13867	-19.00885
2605.32813	-48.01604
2604.5166	107.94166
2603.70606	20.31147
2602.89453	-79.6466
2602.08301	-31.68221
2601.27148	77.85918
2600.45996	165.77689
2599.64844	25.74641
2598.83691	-64.98759
2598.02441	10.51795
2597.21191	67.50665
2596.39941	-26.33714
2595.58691	64.43893
2594.77441	-7.87849
2593.96191	76.66638
2593.14844	99.64541
2592.33594	134.90459
2591.52246	259.25973
2590.70898	-71.30366
2589.89551	37.63703
2589.08106	100.42088
2588.26758	-27.26632
2587.45313	29.32099
2586.63965	107.37136
2585.82519	53.35439
2585.01074	39.23692
2584.19531	-106.86375
2583.38086	63.09875
2582.56543	165.47789
2581.75098	50.05307
2580.93555	106.35659
2580.12012	92.103
2579.30469	-26.38544
2578.48828	100.31089
2577.67285	-70.26791
2576.85644	126.80726
2576.04004	164.51274
2575.22363	159.3085
2574.40723	34.67401
2573.59082	96.80021
2572.77441	39.51519
2571.95703	9.75797
2571.13965	44.23988
2570.32227	-0.84524
2569.50488	73.34051
2568.6875	116.89916
2567.87012	10.61539
2567.05176	-31.47379
2566.23438	24.23821
2565.41602	12.67308
2564.59766	37.74983
2563.7793	252.16524
2562.95996	-19.08626
2562.1416	97.51231
2561.32227	64.45319
2560.50391	68.022
2559.68457	59.34811
2558.86523	62.8595
2558.04492	215.80096
2557.22559	127.74391
2556.40527	42.73407
2555.58594	-69.69076
2554.76563	107.45599
2553.94531	101.6654
2553.12402	89.74804
2552.30371	-13.56425
2551.4834	53.70272
2550.66211	72.18562
2549.84082	111.95182
2549.01953	99.9315
2548.19824	63.54603
2547.37695	-0.23436
2546.55469	182.40219
2545.7334	-42.63488
2544.91113	194.63753
2544.08887	225.03595
2543.2666	179.40022
2542.44434	145.91638
2541.62109	69.86494
2540.79883	139.67217
2539.97559	112.20958
2539.15234	160.66397
2538.3291	221.2243
2537.50586	87.43208
2536.68164	41.68338
2535.8584	102.16355
2535.03418	232.37471
2534.20996	162.286
2533.38574	-86.7569
2532.56152	155.55464
2531.73731	197.63759
2530.91211	100.22041
2530.08789	99.81979
2529.26269	93.32233
2528.4375	80.74466
2527.61231	162.05408
2526.78711	155.48009
2525.96094	79.22659
2525.13574	45.37743
2524.30957	32.69247
2523.4834	-34.48435
2522.65723	-56.27217
2521.83106	55.03408
2521.00391	102.74415
2520.17773	108.09058
2519.35059	58.97457
2518.52344	79.38179
2517.69629	36.28929
2516.86914	295.36798
2516.04199	-10.64144
2515.21387	18.71957
2514.38574	2.74488
2513.55859	146.80171
2512.73047	85.4784
2511.90137	57.34375
2511.07324	-22.09237
2510.24512	31.23689
2509.41602	144.84166
2508.58691	17.09311
2507.75781	160.76665
2506.92871	171.70454
2506.09961	31.89607
2505.27051	91.02922
2504.44043	41.6252
2503.61035	64.52116
2502.78027	45.21563
2501.95019	128.28626
2501.12012	0.53429
2500.29004	188.90018
2499.45898	49.08422
2498.62793	-63.61881
2497.79785	284.04398
2496.9668	168.28461
2496.13477	76.59084
2495.30371	117.23165
2494.47266	133.78227
2493.64063	18.02979
2492.80859	79.61091
2491.97656	102.08374
2491.14453	157.57036
2490.3125	182.97655
2489.47949	70.19568
2488.64746	230.6729
2487.81445	231.95033
2486.98144	161.17219
2486.14844	330.45813
2485.31445	58.61253
2484.48144	104.82197
2483.64746	231.95065
2482.81445	173.11537
2481.98047	213.19537
2481.14648	286.20807
2480.31152	203.32105
2479.47754	39.55801
2478.64258	172.38934
2477.80859	110.48048
2476.97363	183.31047
2476.13867	217.16739
2475.30273	185.11809
2474.46777	206.94338
2473.63281	-58.5213
2472.79688	14.13802
2471.96094	176.48048
2471.125	147.34108
2470.28906	177.98881
2469.45215	112.92403
2468.61621	203.29746
2467.7793	162.11116
2466.94238	195.61092
2466.10547	187.2533
2465.26856	172.90158
2464.43164	200.33653
2463.59375	-5.14629
2462.75684	96.88788
2461.91894	76.48472
2461.08106	139.61186
2460.24316	-18.0676
2459.40527	128.52057
2458.56641	36.44572
2457.72852	30.8621
2456.88965	93.80342
2456.05078	13.63735
2455.21191	52.67151
2454.37207	145.27789
2453.5332	2.52306
2452.69336	133.77255
2451.85449	56.53249
2451.01465	187.67415
2450.17481	116.3427
2449.33398	36.07114
2448.49414	143.26712
2447.65332	146.26613
2446.81348	164.12677
2445.97266	80.83729
2445.13184	45.12451
2444.29102	-79.77425
2443.44922	89.55716
2442.6084	-41.29315
2441.7666	160.59792
2440.92481	-98.00219
2440.08301	145.35089
2439.24121	118.39642
2438.39844	124.06651
2437.55664	114.88611
2436.71387	93.79948
2435.87109	232.90823
2435.02832	122.7695
2434.18555	128.31249
2433.34277	193.13339
2432.49902	183.77357
2431.65625	49.91888
2430.8125	34.61441
2429.96875	164.47603
2429.125	45.42419
2428.28027	-103.2411
2427.43652	136.06712
2426.5918	34.76335
2425.74707	152.52463
2424.90234	151.83386
2424.05762	53.47134
2423.21289	179.9649
2422.36719	-36.74589
2421.52246	234.57754
2420.67676	68.15558
2419.83106	28.88902
2418.98535	51.68219
2418.13867	59.65028
2417.29297	-23.98202
2416.44629	125.7393
2415.60059	104.09905
2414.75391	153.29387
2413.90625	167.00238
2413.05957	56.72538
2412.21289	94.02427
2411.36523	237.48967
2410.51758	147.82295
2409.66992	64.06561
2408.82227	-1.99084
2407.97461	197.30548
2407.12598	-25.04962
2406.27832	70.97326
2405.42969	264.15915
2404.58106	245.1275
2403.73242	231.96916
2402.88379	180.50739
2402.03418	64.24614
2401.18555	-22.53929
2400.33594	120.24494
2399.48633	174.66862
2398.63672	246.70003
2397.78711	165.71515
2396.93652	93.54302
2396.08691	53.73653
2395.23633	-44.89539
2394.38574	32.84998
2393.53516	136.99121
2392.68457	102.96922
2391.83301	71.85661
2390.98242	120.05219
2390.13086	100.6459
2389.2793	104.71069
2388.42773	185.07277
2387.57617	86.34933
2386.72363	22.83452
2385.87207	167.63734
2385.01953	121.68198
2384.16699	-0.53026
2383.31445	267.25357
2382.46191	188.98564
2381.6084	57.94726
2380.75586	281.53726
2379.90234	200.29088
2379.04883	338.75205
2378.19531	81.75036
2377.3418	322.62033
2376.48731	94.93021
2375.63379	13.67581
2374.7793	96.29688
2373.92481	-25.95696
2373.07031	56.59205
2372.21582	7.4659
2371.36035	116.22982
2370.50586	146.00386
2369.65039	70.48976
2368.79492	187.87474
2367.93945	80.18912
2367.08398	-36.24339
2366.22754	-6.62521
2365.37207	55.09997
2364.51563	183.91682
2363.65918	160.856
2362.80273	166.96732
2361.94629	196.39825
2361.08887	103.23431
2360.23242	13.01693
2359.375	191.1124
2358.51758	275.80435
2357.66016	153.44591
2356.80273	208.91594
2355.94434	-35.85054
2355.08594	232.27155
2354.22852	74.95956
2353.37012	10.87006
2352.51172	138.9773
2351.65234	170.91341
2350.79394	-9.66888
2349.93457	86.26424
2349.07617	115.22838
2348.2168	71.40617
2347.35742	-56.77634
2346.49707	178.57069
2345.63769	230.64125
2344.77734	186.71645
2343.91699	107.90551
2343.05762	104.67467
2342.19629	-20.64372
2341.33594	330.47693
2340.47559	141.23936
2339.61426	123.35262
2338.75293	-45.51683
2337.8916	-5.35627
2337.03027	162.4559
2336.16894	132.87723
2335.30664	-53.38578
2334.44531	282.49222
2333.58301	107.82355
2332.7207	86.86128
2331.8584	31.09713
2330.99609	4.31334
2330.13281	113.68553
2329.26953	138.97755
2328.40723	143.97824
2327.54394	-74.05649
2326.68066	136.49228
2325.81641	92.16869
2324.95313	140.47481
2324.08887	206.08292
2323.22461	179.05972
2322.36035	16.06738
2321.49609	101.83442
2320.63184	181.76224
2319.7666	-30.37416
2318.90234	144.88506
2318.03711	42.60545
2317.17188	-24.98693
2316.30566	144.2842
2315.44043	128.6386
2314.57519	63.88537
2313.70898	175.22809
2312.84277	20.94077
2311.97656	94.68357
2311.11035	188.57371
2310.24316	-40.72631
2309.37695	99.25546
2308.50977	118.02072
2307.64258	-18.93964
2306.77539	92.04041
2305.9082	125.1367
2305.04102	-29.10778
2304.17285	150.86679
2303.30469	100.30823
2302.43652	331.98026
2301.56836	51.00787
2300.70019	204.8257
2299.83203	151.32341
2298.96289	132.33122
2298.09375	18.37637
2297.22461	-32.27256
2296.35547	152.91376
2295.48633	-27.18671
2294.61719	74.50613
2293.74707	43.89369
2292.87695	240.30605
2292.00684	137.79303
2291.13672	158.82637
2290.2666	44.83283
2289.39551	108.88463
2288.52539	164.29446
2287.6543	170.84148
2286.7832	125.70155
2285.91211	92.03294
2285.04004	35.38432
2284.16894	179.53928
2283.29688	168.73378
2282.42578	241.07962
2281.55273	141.33296
2280.68066	293.84317
2279.80859	159.71063
2278.93555	80.022
2278.06348	146.45172
2277.19043	-33.48811
2276.31738	121.63842
2275.44434	27.61258
2274.57031	199.7758
2273.69727	37.04298
2272.82324	254.8723
2271.94922	43.49369
2271.07519	-19.09963
2270.20117	95.60115
2269.32617	-118.5724
2268.45215	38.93544
2267.57715	27.7223
2266.70215	96.49771
2265.82715	210.93262
2264.95215	-8.88311
2264.07617	102.60661
2263.20117	119.83073
2262.32519	-8.58105
2261.44922	31.42559
2260.57324	40.00402
2259.69727	85.64648
2258.82031	188.27708
2257.94336	162.51083
2257.06738	233.69807
2256.19043	256.35111
2255.3125	119.33901
2254.43555	-94.56319
2253.55859	141.75903
2252.68066	152.9084
2251.80273	149.79103
2250.92481	266.2468
2250.04688	38.15562
2249.16797	97.59576
2248.29004	199.6989
2247.41113	-2.72811
2246.53223	141.96213
2245.65332	164.27258
2244.77441	81.3371
2243.89453	220.15474
2243.01563	100.2431
2242.13574	460.63736
2241.25586	298.03876
2240.37598	58.77543
2239.49609	245.64041
2238.61523	139.88754
2237.73535	161.94185
2236.85449	-0.57281
2235.97363	376.20993
2235.09277	210.83598
2234.21094	167.47711
2233.33008	107.11611
2232.44824	-66.70534
2231.56641	94.10379
2230.68457	16.69589
2229.80273	120.69601
2228.9209	159.45673
2228.03809	186.82643
2227.15527	338.80444
2226.27344	199.00835
2225.39063	-20.0615
2224.50684	103.47286
2223.62402	198.65317
2222.74023	58.86448
2221.85644	366.16287
2220.97363	138.67772
2220.08887	38.49375
2219.20508	127.81245
2218.32129	202.9391
2217.43652	306.26102
2216.55176	239.95247
2215.66699	196.25281
2214.78223	-14.13191
2213.89746	255.71733
2213.01172	-33.73316
2212.12695	162.56363
2211.24121	192.19159
2210.35547	193.56249
2209.46875	194.89154
2208.58301	227.25424
2207.69629	197.50586
2206.81055	74.70334
2205.92383	318.46072
2205.03711	130.78059
2204.14941	210.89479
2203.26269	243.07129
2202.375	134.32048
2201.48828	121.38895
2200.60059	161.93057
2199.71191	-155.19525
2198.82422	175.31868
2197.93652	300.20801
2197.04785	261.78351
2196.15918	319.01865
2195.27051	114.59123
2194.38184	177.41733
2193.49316	226.13857
2192.60352	-93.50462
2191.71387	143.52086
2190.82422	402.91916
2189.93457	125.51457
2189.04492	182.50537
2188.15527	155.19142
2187.26465	276.68222
2186.37402	-53.9305
2185.4834	221.90706
2184.59277	143.98692
2183.70215	245.66464
2182.81055	215.40314
2181.91992	131.86067
2181.02832	188.53043
2180.13672	138.61169
2179.24512	346.59964
2178.35254	254.56651
2177.46094	215.81526
2176.56836	261.08795
2175.67578	169.06731
2174.7832	71.4624
2173.89063	119.47933
2172.99707	377.40317
2172.10449	268.56043
2171.21094	263.26236
2170.31738	397.84222
2169.42383	59.59594
2168.5293	322.75772
2167.63574	124.43355
2166.74121	133.03023
2165.84668	289.75119
2164.95215	21.60329
2164.05762	200.60126
2163.16309	164.40434
2162.26758	-3.09121
2161.37207	77.99187
2160.47754	94.8317
2159.58106	262.33951
2158.68555	-33.50032
2157.79004	-61.37064
2156.89356	86.48606
2155.99707	231.47838
2155.10059	183.97455
2154.2041	200.59961
2153.30762	401.18372
2152.41016	311.79196
2151.51367	-6.0582
2150.61621	174.87172
2149.71875	230.36639
2148.82031	127.05919
2147.92285	260.46963
2147.02441	349.24631
2146.12695	179.14505
2145.22852	134.29587
2144.33008	131.17877
2143.43066	286.58041
2142.53223	141.56146
2141.63281	77.1971
2140.7334	-137.28357
2139.83398	106.92519
2138.93457	156.49139
2138.03516	122.66901
2137.13477	336.05325
2136.23438	177.17012
2135.33398	312.67593
2134.43359	325.95551
2133.5332	336.43668
2132.63281	199.81087
2131.73144	310.14493
2130.83008	520.28912
2129.92871	239.40765
2129.02734	144.41357
2128.12598	102.11756
2127.22363	101.37836
2126.32129	47.96623
2125.41992	8.43564
2124.51758	198.82141
2123.61426	15.16852
2122.71191	266.37103
2121.80859	293.16876
2120.90527	300.5625
2120.00293	241.53552
2119.09863	212.90985
2118.19531	184.30106
2117.29199	318.88428
2116.38769	234.90193
2115.4834	145.40567
2114.5791	293.67191
2113.67481	-11.41743
2112.76953	305.33417
2111.86523	348.44791
2110.95996	264.4408
2110.05469	188.73756
2109.14941	317.3783
2108.24414	280.31229
2107.33789	359.15008
2106.43164	275.12405
2105.52637	444.97342
2104.62012	396.79416
2103.71289	89.34512
2102.80664	159.79513
2101.89941	249.47942
2100.99316	319.84219
2100.08594	120.06536
2099.17871	209.66159
2098.27051	362.54507
2097.36328	-71.2774
2096.45508	-9.29977
2095.54688	314.19086
2094.63867	304.47189
2093.73047	256.21332
2092.82227	232.72287
2091.91309	107.41762
2091.00391	78.4138
2090.0957	93.43025
2089.18555	12.15164
2088.27637	87.5995
2087.36719	66.812
2086.45703	131.17886
2085.54688	74.62691
2084.63672	188.38181
2083.72656	142.79814
2082.81641	187.82616
2081.90527	142.21202
2080.99414	398.50757
2080.08301	341.86719
2079.17188	266.03021
2078.26074	286.21545
2077.34961	122.63496
2076.4375	312.79065
2075.52539	176.63481
2074.61328	210.45171
2073.70117	282.60764
2072.78809	357.43951
2071.87598	46.01787
2070.96289	400.19128
2070.04981	108.00285
2069.13672	-58.15181
2068.22363	342.32794
2067.30957	132.36008
2066.39648	116.7437
2065.48242	308.99722
2064.56836	293.3064
2063.6543	266.67129
2062.73926	182.60068
2061.82519	145.04114
2060.91016	216.77574
2059.99512	94.47653
2059.08008	168.90144
2058.16504	377.11694
2057.24902	260.2626
2056.33301	411.00082
2055.41797	163.1628
2054.50098	294.71213
2053.58496	210.6639
2052.66894	432.17825
2051.75195	359.00125
2050.83594	223.14491
2049.91894	471.73602
2049.00098	327.66727
2048.08398	409.87161
2047.16699	167.77769
2046.24902	81.03099
2045.33106	146.83972
2044.41309	305.203
2043.49512	147.65901
2042.57617	240.58464
2041.6582	74.93143
2040.73926	219.51559
2039.82031	451.09323
2038.90137	489.44662
2037.98144	538.63141
2037.0625	356.6958
2036.14258	234.60541
2035.22266	319.11539
2034.30273	313.90936
2033.38281	365.75018
2032.46191	230.11237
2031.54199	51.08908
2030.62109	48.59514
2029.70019	233.41107
2028.7793	103.29771
2027.85742	-21.36807
2026.93652	290.84384
2026.01465	155.32286
2025.09277	410.38467
2024.1709	163.70416
2023.24902	6.5744
2022.32617	464.75412
2021.4043	399.74954
2020.48144	307.6445
2019.55859	107.21359
2018.63574	177.6884
2017.71191	17.94092
2016.78906	359.11902
2015.86523	413.21759
2014.94141	280.55719
2014.01758	80.29907
2013.09277	472.5213
2012.16894	504.88928
2011.24414	361.44678
2010.31934	288.34735
2009.39453	253.11162
2008.46973	255.71915
2007.54394	98.87792
2006.61914	231.17129
2005.69336	487.62647
2004.76758	58.07275
2003.8418	425.14307
2002.91504	241.37448
2001.98926	395.04666
2001.0625	262.61255
2000.13574	230.04019
1999.20898	208.26422
1998.28223	27.3863
1997.35449	385.78436
1996.42676	477.1676
1995.56453	204.69341
1994.57227	207.14493
1993.64356	317.32892
1992.71582	260.48975
1991.78711	494.48871
1990.8584	111.81623
1989.92969	208.45383
1989.00098	426.16138
1988.07227	428.50931
1987.14258	387.78378
1986.21387	578.41565
1985.28418	475.81418
1984.35449	211.92279
1983.42383	354.03165
1982.49414	240.77174
1981.56348	278.01129
1980.63281	264.18601
1979.70215	193.95416
1978.77148	349.33637
1977.84082	386.51044
1976.90918	665.25293
1975.97754	554.70062
1975.0459	296.59772
1974.11426	542.9873
1973.18262	781.2309
1972.25355	547.34125
1971.31738	570.95227
1970.38477	562.38043
1969.45215	360.82895
1968.51953	625.63586
1967.58691	525.95563
1966.65332	378.07443
1965.71973	629.302
1964.78613	409.15591
1963.85254	320.27698
1962.91797	667.69568
1961.98438	811.61694
1961.04981	647.7677
1960.11523	628.43207
1959.18066	518.16888
1958.24512	645.91284
1957.31055	843.13648
1956.375	633.97107
1955.43945	686.78467
1954.50391	622.01495
1953.56836	554.59753
1952.63184	535.25836
1951.69531	475.8714
1950.75977	459.24793
1949.82227	701.50116
1948.88574	751.53577
1947.94922	526.72406
1947.01172	480.7121
1946.07422	578.7467
1945.13672	375.41196
1944.19922	486.75879
1943.26172	438.12912
1942.32324	581.37982
1941.38477	695.26355
1940.44629	729.18481
1939.50781	507.39957
1938.56934	788.99969
1937.62988	561.94562
1936.69141	303.06296
1935.75195	595.16302
1934.8125	621.06696
1933.87207	607.03406
1932.93262	680.80573
1931.99219	406.16226
1931.05176	830.87976
1930.11133	803.53442
1929.1709	685.83935
1928.23047	770.13837
1927.28906	756.08929
1926.34766	696.89392
1925.40625	653.65979
1924.46484	674.16437
1923.52344	596.44684
1922.58106	646.1358
1921.63867	719.68878
1920.69629	427.10406
1919.75391	800.40704
1918.81152	762.51392
1917.86816	756.43622
1916.92578	678.81329
1915.98242	860.93762
1915.03906	770.05969
1914.09473	583.82581
1913.15137	455.96518
1912.20703	688.30157
1911.26269	539.27685
1910.31836	835.0473
1909.37402	437.27127
1908.42969	902.31018
1907.48438	843.31055
1906.53906	742.01679
1905.59375	508.53836
1904.64844	780.17621
1903.70313	678.97144
1902.75684	630.65259
1901.81055	561.216
1900.86426	866.97821
1899.91797	903.19324
1898.97168	625.12878
1898.02441	788.10919
1897.07715	808.47833
1896.12988	694.23639
1895.18262	680.32483
1894.23535	859.02112
1893.28809	676.27655
1892.33984	741.49377
1891.3916	1078.2782
1890.44336	771.6944
1889.49512	894.86176
1888.5459	743.90546
1887.59766	811.716
1886.64844	861.04962
1885.69922	857.69739
1884.74902	838.53455
1883.79981	958.93591
1882.84961	694.99377
1881.90039	678.55353
1880.95019	851.53961
1879.99902	948.16125
1879.04883	1050.03503
1878.09766	965.16382
1877.14746	906.64459
1876.19629	703.57587
1875.24414	889.50476
1874.29297	807.3974
1873.3418	1069.45154
1872.38965	997.84344
1871.4375	876.3855
1870.48535	923.00543
1869.53223	696.61804
1868.58008	976.83368
1867.62695	813.51489
1866.67383	875.8703
1865.7207	893.62653
1864.76758	969.07281
1863.81348	756.09668
1862.86035	918.06213
1861.90625	909.61322
1860.95215	1011.22211
1859.99805	871.80102
1859.04297	944.57153
1858.08887	865.46979
1857.13379	681.66931
1856.17871	1003.13232
1855.22266	664.98102
1854.26758	894.76843
1853.31152	737.29724
1852.35644	951.31384
1851.40039	874.98224
1850.44336	981.67963
1849.48731	1166.78516
1848.53027	923.2207
1847.57422	925.39264
1846.61719	919.72113
1845.65918	1052.47009
1844.70215	746.50659
1843.74512	730.47241
1842.78711	1004.17365
1841.8291	677.54669
1840.87109	619.81244
1839.91211	992.52496
1838.9541	880.00818
1837.99512	775.35443
1837.03613	767.22101
1836.07715	951.99457
1835.11816	990.76917
1834.1582	912.2727
1833.19922	1031.8269
1832.23926	1135.70227
1831.2793	736.9776
1830.31836	981.47284
1829.3584	1145.21252
1828.39746	1157.94214
1827.43652	954.72253
1826.47559	717.78064
1825.51465	756.6477
1824.55273	852.70453
1823.5918	1044.95374
1822.62988	1169.54334
1821.66797	1096.58716
1820.70606	896.3606
1819.74316	852.08038
1818.78027	1132.49695
1817.81836	961.00128
1816.85547	999.87042
1815.8916	1119.1886
1814.92871	1059.42883
1813.96484	955.5813
1813.00098	1017.82013
1812.03711	1067.08679
1811.07324	882.9693
1810.10938	1204.50891
1809.14453	854.56116
1808.17969	901.28845
1807.21484	1119.02673
1806.25343	815.99487
1805.28516	1233.13843
1804.31934	782.6217
1803.35352	1197.03845
1802.38769	1075.49048
1801.42188	954.01105
1800.45606	819.66467
1799.48926	1259.67651
1798.52344	1081.3938
1797.55664	1063.51257
1796.58887	1309.35339
1795.62207	1294.06201
1794.6543	1374.40137
1793.6875	1273.88013
1792.71973	920.23206
1791.75195	1251.20093
1790.7832	1153.37537
1789.81543	1068.53748
1788.84668	1146.3606
1787.87793	1084.81287
1786.90918	1211.67383
1785.93945	1191.44055
1784.9707	879.80688
1784.00098	1099.51672
1783.03125	808.67883
1782.06152	1025.78552
1781.0918	1008.30573
1780.12109	1160.89868
1779.15039	1411.34888
1778.18066	1097.68066
1777.20898	982.40729
1776.23828	1222.51965
1775.26758	1238.61487
1774.2959	966.47144
1773.32422	1034.104
1772.35254	919.08514
1771.37988	1038.1759
1770.4082	1396.41296
1769.43555	1093.76782
1768.46289	914.65149
1767.49023	735.63635
1766.51758	1088.59558
1765.54394	1104.89026
1764.57129	1128.92944
1763.59766	1299.33777
1762.62402	612.19367
1761.64941	1234.44824
1760.67578	1191.80737
1759.70117	984.97766
1758.72656	1263.10986
1757.75195	1259.02649
1756.77734	1147.27246
1755.80176	971.47699
1754.82617	957.2691
1753.85156	1312.15478
1752.875	1185.18494
1751.89941	1232.51221
1750.92383	1144.10339
1749.94727	1165.85339
1748.9707	941.84235
1747.99414	1352.75977
1747.01758	954.83435
1746.04004	1355.39282
1745.0625	832.3197
1744.08496	1271.16797
1743.10742	1195.88306
1742.12988	1197.35962
1741.15137	1175.84241
1740.17383	1167.16077
1739.19531	1263.2572
1738.2168	978.71155
1737.23731	1074.85266
1736.25879	1418.69885
1735.2793	1512.22437
1734.29981	1296.88574
1733.32031	1127.60107
1732.34082	1241.63806
1731.36035	1467.88843
1730.38086	1242.65906
1729.40039	1247.03601
1728.41992	1406.96179
1727.43848	1077.4397
1726.45801	1334.245
1725.47656	1412.60669
1724.49512	1322.84009
1723.51367	1528.58801
1722.53223	1484.73743
1721.54981	1160.87549
1720.56738	1239.349
1719.58496	1414.53113
1718.60254	1205.47656
1717.62012	1314.52527
1716.63672	1497.30615
1715.6543	1435.95081
1714.6709	1405.15002
1713.68652	1425.2168
1712.70313	1313.17908
1711.71973	1714.46436
1710.73535	1417.02978
1709.75098	1640.40491
1708.7666	1414.27747
1707.78125	1368.51282
1706.79688	1591.87488
1705.81152	1277.16638
1704.82617	1371.11621
1703.84082	1424.47827
1702.85449	1455.01672
1701.86914	1554.05933
1700.88281	1577.02869
1699.89648	1480.89722
1698.91016	1402.5813
1697.92285	1691.70239
1696.93652	1757.84399
1695.94922	1461.8136
1694.96191	1515.37488
1693.97461	1720.85376
1692.98633	1847.81006
1691.99902	1463.58606
1691.01074	1534.95886
1690.02246	1323.02954
1689.03418	1531.05383
1688.04492	1519.03308
1687.05664	1620.83667
1686.06738	1490.08752
1685.07813	1369.54297
1684.08887	2103.05835
1683.09863	1434.35596
1682.1084	1599.38782
1681.11914	1635.6333
1680.12891	1724.90747
1679.13769	1581.96472
1678.14746	1676.34338
1677.15625	1435.15759
1676.16504	1622.92981
1675.17383	1528.21081
1674.18262	1642.85242
1673.19043	1606.2196
1672.19922	1756.17456
1671.20703	1470.14648
1670.21484	1657.93079
1669.22168	1918.71899
1668.22949	1819.32581
1667.23633	1702.3783
1666.24316	2083.96851
1665.25343	1889.07886
1664.25684	1711.92835
1663.26269	1846.84937
1662.26953	1750.36121
1661.27539	1769.62659
1660.28027	1804.0033
1659.28613	1529.21924
1658.29199	1772.34314
1657.29688	1887.24695
1656.30176	1640.37366
1655.30664	1637.2937
1654.31055	2013.45911
1653.31543	1897.41162
1652.31934	2052.55713
1651.32324	1851.29761
1650.32715	1667.73059
1649.33008	1928.328
1648.33398	2116.14087
1647.33691	2002.97998
1646.33984	2160.69775
1645.34277	1949.90601
1644.34473	1954.77185
1643.34668	1781.77881
1642.34961	1914.55456
1641.35156	2019.76209
1640.35254	1902.08716
1639.35449	2072.44897
1638.35547	2285.33691
1637.35644	2322.99585
1636.35742	2258.09985
1635.3584	2210.7915
1634.3584	1988.45532
1633.35938	2198.89307
1632.35938	1981.75073
1631.35938	2349.67529
1630.3584	2145.17676
1629.3584	2213.18066
1628.35742	1998.90064
1627.35644	2159.4126
1626.35547	2002.76782
1625.35449	2168.30981
1624.35254	2261.43774
1623.35059	2364.56177
1622.34863	2370.38477
1621.34668	2134.27832
1620.34473	2494.42017
1619.3418	2540.2605
1618.33887	2152.32983
1617.33594	2026.33557
1616.33301	2256.81885
1615.3291	2145.89966
1614.32617	2356.4458
1613.32227	2278.03711
1612.31836	2269.43896
1611.31445	2203.63721
1610.30957	2386.81714
1609.30469	2336.05005
1608.30078	2238.09253
1607.29492	2351.65747
1606.29004	2194.14746
1605.28516	2394.82593
1604.2793	2259.84668
1603.27344	2597.2395
1602.26758	2534.45386
1601.26074	2720.19702
1600.25488	2245.16846
1599.24805	2386.30542
1598.24121	2323.8291
1597.23438	2601.54639
1596.22656	2643.40479
1595.21973	2429.71069
1594.21191	2456.81592
1593.2041	2506.2915
1592.19629	2739.32837
1591.1875	2654.93701
1590.17969	2444.21826
1589.1709	2417.04468
1588.16211	2667.48169
1587.15234	2598.26514
1586.14356	2610.88745
1585.13379	2950.45606
1584.12402	2938.35132
1583.11426	2931.2605
1582.10449	3146.98657
1581.09375	3357.72632
1580.08398	3264.14356
1579.07324	3749.45752
1578.06152	3782.06079
1577.05078	4442.74268
1576.03906	4734.87647
1575.02832	5274.11426
1574.0166	5301.68311
1573.00391	5386.11914
1571.99219	5327.32715
1570.97949	5155.01563
1569.96777	5180.36719
1568.9541	5111.94971
1567.94141	4996.73584
1566.92871	4869.29688
1565.91504	5065.14014
1564.90137	4540.74853
1563.88769	4448.18262
1562.87402	4086.97754
1561.85938	3831.97168
1560.84473	3798.93677
1559.83008	3820.18726
1558.81543	3641.94971
1557.80078	3392.42163
1556.78516	3655.2522
1555.76953	3726.00562
1554.75391	3727.87305
1553.73828	3936.52686
1552.72266	4044.28149
1551.70606	3896.2102
1550.68945	4166.38086
1549.67285	3666.83814
1548.65625	3897.74097
1547.63867	3732.86939
1546.62207	3548.47754
1545.60449	3408.44849
1544.58691	3467.51782
1543.56836	3315.40747
1542.55078	3453.18311
1541.53223	3303.72705
1540.51367	3259.94214
1539.49512	3417.47095
1538.47559	3322.28613
1537.45703	3700.64624
1536.4375	3598.2207
1535.41797	3289.93774
1534.39844	3369.18628
1533.37793	3431.30811
1532.3584	3424.86572
1531.33789	3212.68579
1530.31738	3461.17261
1529.2959	3288.38916
1528.27539	3208.7959
1527.25391	3214.97949
1526.23242	3505.14307
1525.21094	3114.98779
1524.18848	3145.8562
1523.16699	3352.90161
1522.14453	3210.21899
1521.12207	3324.39209
1520.09961	3255.24902
1519.07617	3359.72852
1518.05371	3571.75635
1517.03027	3617.63745
1516.00684	3590.29663
1514.98242	3660.71411
1513.95898	3704.32275
1512.93457	3301.27002
1511.91016	3315.78711
1510.88574	3252.29004
1509.86133	3481.63623
1508.83594	3596.32422
1507.81055	3691.52783
1506.78516	3655.1106
1505.75977	3745.53516
1504.73438	3472.87427
1503.70801	3858.26709
1502.68164	3573.65649
1501.65527	3652.13867
1500.62891	3723.3562
1499.60156	3521.94067
1498.57422	3744.21606
1497.54785	3616.03882
1496.51953	4057.32739
1495.49219	3863.60718
1494.46387	3925.40747
1493.43652	3826.7749
1492.4082	3947.05371
1491.37891	3909.3689
1490.35059	3847.47461
1489.32129	3980.04883
1488.29199	3869.73315
1487.26269	4128.69189
1486.2334	4042.82519
1485.20313	3714.30298
1484.17383	4288.8916
1483.14356	4399.83105
1482.11328	4069.24243
1481.08203	4321.02051
1480.05176	4121.69727
1479.02051	4077.70776
1477.98926	4256.8374
1476.95703	4372.95605
1475.92578	4360.67822
1474.89356	4416.31689
1473.86133	4290.34668
1472.8291	4384.88135
1471.79688	4646.5166
1470.76367	4542.59863
1469.73144	4220.98584
1468.69824	4487.56982
1467.66504	4347.69629
1466.63086	4244.23975
1465.59668	4319.85303
1464.56348	4671.13867
1463.5293	4502.65381
1462.49414	4948.16797
1461.45996	4743.61328
1460.42481	5015.12207
1459.38965	5110.28809
1458.35449	5067.85449
1457.31934	5247.63281
1456.2832	5449.14014
1455.24707	5358.64014
1454.21094	5367.18262
1453.17481	4994.66162
1452.13867	4911.79004
1451.10156	5140.0918
1450.06445	5011.58252
1449.02734	5030.2373
1447.99023	5092.34277
1446.95215	4843.7041
1445.91406	5185.41357
1444.87598	5093.5625
1443.83789	5213.7251
1442.79981	5030.59277
1441.76074	5006.47363
1440.72168	5090.73438
1439.68262	5254.43701
1438.64356	4963.53857
1437.60352	4990.29053
1436.56445	5308.04443
1435.52441	5238.72607
1434.48438	5138.27637
1433.44336	4804.86865
1432.40332	4856.07031
1431.36231	5303.65527
1430.32129	5222.82666
1429.28027	5281.36816
1428.23828	5051.91943
1427.19629	5072.24463
1426.15527	5229.41504
1425.11231	5429.79297
1424.07031	4853.06397
1423.02832	5370.13965
1421.98535	5134.27686
1420.94238	5085.56299
1419.89941	5382.05469
1418.85547	5230.45459
1417.81152	5450.31397
1416.76856	5598.31201
1415.72363	5700.84668
1414.67969	5736.39111
1413.63574	5716.9541
1412.59082	5707.18603
1411.5459	5726.22168
1410.50098	5841.021
1409.45508	5910.42285
1408.41016	6056.39502
1407.36426	5956.16602
1406.31836	6054.44434
1405.27148	5995.06055
1404.22559	5904.72363
1403.17871	6012.77588
1402.13184	6120.87109
1401.08496	5703.72314
1400.03809	5874.08105
1398.99023	6108.90234
1397.94238	5861.70361
1396.89453	6053.66504
1395.84668	5911.70801
1394.79785	5822.36523
1393.75343	6188.53272
1392.70117	6020.68457
1391.65234	5872.06201
1390.60254	6407.44727
1389.55371	6006.46387
1388.50391	6094.00635
1387.4541	6291.14014
1386.40332	6243.06787
1385.35352	5938.0249
1384.30273	6049.6709
1383.25195	6356.46875
1382.20117	5697.41895
1381.15039	6432.44727
1380.09863	6213.74463
1379.04688	6232.96045
1377.99512	6252.25977
1376.94336	6136.18701
1375.8916	6421.78174
1374.83887	6108.75049
1373.78613	6078.55566
1372.7334	6148.19141
1371.67969	6194.1582
1370.62695	6627.06201
1369.57324	6236.46777
1368.51953	6467.71582
1367.46582	6568.5
1366.41113	6726.25635
1365.35742	6518.89746
1364.30273	6484.77295
1363.24707	6256.41602
1362.19238	6137.24121
1361.13672	6361.72656
1360.08203	6318.55566
1359.02637	6805.95361
1357.96973	6417.24121
1356.91406	6336.49756
1355.85742	6644.0127
1354.80078	6442.77686
1353.74414	6584.73438
1352.6875	6511.49805
1351.62988	6540.07422
1350.57227	6627.83496
1349.51465	6597.46924
1348.45703	6349.79395
1347.39844	6622.12158
1346.34082	6781.03369
1345.28223	6786.47022
1344.22363	6636.1543
1343.16406	6748.05029
1342.10547	6895.38672
1341.0459	6889.38037
1339.98633	6770.22412
1338.92578	6875.30664
1337.86621	6725.73047
1336.80566	6663.56201
1335.74512	6860.82129
1334.68457	7039.23877
1333.62402	6974.96924
1332.5625	7155.84424
1331.50098	7089.42041
1330.43945	7037.24902
1329.37793	6841.57227
1328.31543	7074.50098
1327.25293	7121.50293
1326.19043	7095.63965
1325.12793	7008.71631
1324.06543	7138.30908
1323.00195	7053.96533
1321.93848	6993.2627
1320.875	7080.76367
1319.81152	7534.93115
1318.74707	7277.1001
1317.68262	7167.46094
1316.61816	7264.64063
1315.55371	7094.18994
1314.48926	7116.40967
1313.42383	6965.03955
1312.3584	7280.81055
1311.29297	7495.6626
1310.22656	7466.58057
1309.16113	7451.66797
1308.09473	7713.54248
1307.02832	7408.10303
1305.96191	7398.19775
1304.89453	7505.56641
1303.82813	7542.69092
1302.76074	7699.36328
1301.69238	7647.65967
1300.625	7556.25928
1299.55664	7556.29883
1298.48926	7563.43994
1297.41992	7647.91699
1296.35156	7608.45459
1295.2832	7548.05518
1294.21387	7593.01611
1293.14453	7832.10254
1292.07519	7783.68359
1291.00488	7985.4458
1289.93457	7729.27344
1288.86523	8038.59766
1287.79394	7890.15967
1286.72363	8573.12891
1285.65332	8480.84961
1284.58203	8598.78223
1283.51074	8548.74316
1282.43848	8965.45117
1281.36719	9391.40137
1280.29492	9411.49707
1279.22266	9751.11133
1278.15039	9946.15234
1277.07813	9910.47168
1276.00488	10056.6709
1274.93164	9722.99121
1273.8584	9224.1709
1272.78516	9007.43066
1271.71094	8688.44629
1270.63672	8602.46875
1269.5625	8276.91406
1268.48828	8416.94727
1267.41406	8354.62988
1266.33887	8201.74316
1265.26367	8244.34473
1264.18848	8326.54688
1263.11328	7962.53174
1262.03711	7931.0957
1260.96094	8350.50879
1259.88477	8098.521
1258.80859	7684.16064
1257.73144	8310.32324
1256.65527	8119.14697
1255.57813	8167.22363
1254.5343	8201.46777
1253.42285	7994.49707
1252.34473	8351.37305
1251.2666	8742.98242
1250.18848	8520.10059
1249.11035	8719.30176
1248.03125	8881.45019
1246.95313	8962.51269
1245.87305	9226.68262
1244.79394	9576.52246
1243.71484	9706.32129
1242.63477	10491.38281
1241.55469	11118.81055
1240.47461	11218.42481
1239.39356	11082.10644
1238.31348	10767.80176
1237.23242	10550.87793
1236.15137	10257.83398
1235.06934	9756.95703
1233.98828	9596.13574
1232.90625	8966.38867
1231.82422	9776.77148
1230.74219	9443.66113
1229.65918	9003.06055
1228.57617	8974.68457
1227.49414	8761.71973
1226.41016	9149.05176
1225.32715	8661.75391
1224.24316	9139.1084
1223.15918	9254.22949
1222.07519	9078.83496
1220.99121	8647.68848
1219.90625	8889.92285
1218.82227	8850.96973
1217.73633	9017.23242
1216.65137	9003.81641
1215.56641	9013.53027
1214.48047	8823.02051
1213.39453	8750.09473
1212.30859	9022.55371
1211.22168	9318.02637
1210.13574	8771.36426
1209.04883	9262.47656
1207.96191	9144.02734
1206.87402	9161.40039
1205.78711	9174.24121
1204.69922	9150.41699
1203.61133	9057.75781
1202.52246	9387.97461
1201.43457	9118.62695
1200.3457	9258.27246
1199.25684	9005.33984
1198.16797	9533.07617
1197.0791	9271.19727
1195.98926	8952.17383
1194.89941	9273.42285
1193.80957	9374.44336
1192.71875	9246.22559
1191.62891	9544.55957
1190.53809	9581.57715
1189.44727	9643.87891
1188.35547	9458.81543
1187.26465	9816.80078
1186.17285	9799.15039
1185.08106	9669.39941
1183.98926	9610.76074
1182.89648	9836.06934
1181.80469	10011.01074
1180.71191	9801.63281
1179.61816	10120.83496
1178.52539	9991.74219
1177.43164	10112.03418
1176.33887	10296.34961
1175.24414	10300.16992
1174.15039	10235.50684
1173.05566	10730.68262
1171.96191	10474.27734
1170.86719	10457.86133
1169.77148	10510.05469
1168.67676	10523.48828
1167.58106	10746.9834
1166.48535	10374.96387
1165.38965	10534.70019
1164.29297	10418.5166
1163.19629	10603.45508
1162.10059	10357.51465
1161.00293	10572.21484
1159.90625	10568.12988
1158.80859	10566.43262
1157.71094	10895.10742
1156.61328	10677.1709
1155.51563	10796.38574
1154.41699	10660.70508
1153.31934	11009.91406
1152.21973	10824.37988
1151.12109	10609.41309
1150.02246	10663.01172
1148.92285	10753.07813
1147.82324	10854.55762
1146.72363	10674.22363
1145.62305	11014.49121
1144.52246	11002.52637
1143.42188	10922.50098
1142.32129	10994.76172
1141.2207	11096.5918
1140.11914	11287.02441
1139.01758	10987.20313
1137.91602	11216.32031
1136.81445	11472.65234
1135.71191	11547.51758
1134.60938	11107.64356
1133.50684	11289.28613
1132.4043	11525.33594
1131.30078	11421.43555
1130.19824	11315.37207
1129.09473	11501.69629
1127.99023	11694.84277
1126.88672	11566.40918
1125.78223	11551.33398
1124.67773	11445.80371
1123.57324	11557.65039
1122.46777	11830.19824
1121.36328	11670.62402
1120.25781	11619.7793
1119.15234	12028.0459
1118.0459	12056.45313
1116.94043	11854.35938
1115.83398	12183.49023
1114.72754	11916.11719
1113.62012	12218.16992
1112.51367	12249.15332
1111.40625	12426.98242
1110.29883	12528.0625
1109.19043	12775.90039
1108.08301	13021.42773
1106.97461	12975.9375
1105.86621	13363.58887
1104.75781	13207.70019
1103.64844	13705.78516
1102.53906	13734.89746
1101.42969	14113.37305
1100.32031	13782.03906
1099.21094	13622.11816
1098.10059	13694.33203
1096.99023	13543.67188
1095.87988	13485.44922
1094.76953	13344.0459
1093.6582	13412.07129
1092.54688	13441.8916
1091.43555	13321.07129
1090.32422	13162.13965
1089.21191	13336.12695
1088.09961	13074.02539
1086.98731	13434.63379
1085.875	13352.51269
1084.76172	13430.02148
1083.64844	13366.06836
1082.53516	13077.65918
1081.42188	13382.12891
1080.30762	13475.57617
1079.19434	13261.58203
1078.08008	13476.30566
1076.96484	13507.0918
1075.85059	13152.16602
1074.73535	13443.2334
1073.62012	13613.19043
1072.50488	13798.83106
1071.38867	13556.49512
1070.27344	14071.52246
1069.15723	13462.02441
1068.04102	13535.85352
1066.92383	14229.91504
1065.80762	13945.5293
1064.69043	13952.28516
1063.57227	13923.32813
1062.45508	13957.05273
1061.33691	13829.82227
1060.21973	13910.62988
1059.10059	13877.50488
1057.98242	14043.35156
1056.86426	14189.07519
1055.74512	14303.54394
1054.62598	13948.94629
1053.50586	14338.24902
1052.38672	14175.92481
1051.2666	14710.22852
1050.14648	14414.12793
1049.02637	14497.53711
1047.90527	14418.13867
1046.78418	14329.90918
1045.66309	14101.28516
1044.54199	14414.57031
1043.41992	14197.30664
1042.29883	14470.43359
1041.17676	14485.07031
1040.05469	14533.16992
1038.93164	14788.44824
1037.80859	14772.02051
1036.68555	14688.86719
1035.5625	14866.20508
1034.43945	15112.49902
1033.31543	14922.71387
1032.19141	14984.40332
1031.06738	14830.40527
1029.94336	15125.63574
1028.81836	15209.64356
1027.69336	15540.34863
1026.56836	14991.07617
1025.44238	15357.35254
1024.31738	15456.9707
1023.19141	15445.59668
1022.06543	15480.89063
1020.93848	15731.54297
1019.8125	16006.51172
1018.68555	15549.28516
1017.55859	15782.14356
1016.43066	15775.46582
1015.30371	16063.69336
1014.17578	15952.84863
1013.04785	16241.02637
1011.91992	16116.97754
1010.79102	16101.59961
1009.66211	16141.64063
1008.5332	16323.42481
1007.4043	15889.68945
1006.27441	16259.69922
1005.14551	16372.84766
1004.01563	16185.10938
1002.88477	16327.11133
1001.75488	16422.61523
1000.62402	16619.85352
999.49316	16379.32813
998.3623	16724.64063
997.23047	16466.61328
996.09863	16727.89844
994.9668	16706.38281
993.83496	16612.0293
992.70313	16831.26172
991.57031	16827.51172
990.4375	16907.65234
989.30469	17069.42969
988.1709	17120.89258
987.03711	16883.43945
985.9043	17219.39453
984.76953	17008.55469
983.63574	17278.29688
982.50098	17131.48633
981.36621	17315.23828
980.23145	17734.625
979.09668	17394.08398
977.96094	17635.00586
976.8252	17730.55859
975.68945	17559.78711
974.55273	17457.34961
973.41699	17816.92578
972.28027	17894.86719
971.14258	17922.24609
970.00586	17731.94531
968.86816	17805.53906
967.73047	18366.97461
966.59277	17752.73633
965.45508	18219.51953
964.31641	17708.8457
963.17773	18342.36914
962.03906	18009.72656
960.90039	17852.81836
959.76074	18108.54492
958.62109	18054.83984
957.48145	18009.94141
956.3418	18133.92578
955.20117	18341.20117
954.06055	18421.26367
952.91992	18363.23242
951.7793	18561.58203
950.6377	18650.35352
949.49609	18658.05664
948.35449	18398.61914
947.21191	18566.21289
946.07031	19009.49023
944.92773	18796.12891
943.78516	18539.10352
942.6416	18809.36133
941.49902	19138.51367
940.35547	19152.71289
939.21191	19361.45313
938.06738	18923.23047
936.92383	19341.67773
935.7793	19226.94531
934.63477	19507.57227
933.48926	19423.4375
932.34473	19588.17969
931.19922	19368.7207
930.05371	19625.06445
928.90723	19612.96484
927.76172	19683.7168
926.61523	19667.22461
925.46875	19720.49805
924.32129	19560.13281
923.1748	19990.41016
922.02734	19925.89844
920.87988	19928.93359
919.73145	20239.07422
918.58398	20479.35156
917.43555	20495.30078
916.28711	20474.21875
915.1377	20244.24023
913.98926	20549.53125
912.83984	20236.93164
911.69043	20605.14258
910.54004	20588.35156
909.39063	20447.60156
908.24023	20728.54883
907.08984	20379.20508
905.93848	20505.77539
904.78809	20936.31445
903.63672	20878.07422
902.48438	20837.22266
901.33301	20757.25781
900.18066	20788.00195
899.0293	20718.86328
897.87598	20704.00391
896.72363	20945.00195
895.57031	21073.13477
894.41699	20852.16016
893.26367	20865.31445
892.11035	21108.11133
890.95605	21318.29688
889.80176	21214.28516
888.64746	21380.96484
887.49316	21281.22852
886.33789	21309.23047
885.18262	21402.0957
884.02734	21224.41797
882.87109	21713.05664
881.71582	21526.64258
880.55957	21653.81445
879.40332	21458.77344
878.24609	21970.54688
877.08887	22017.46094
875.93164	22005.97266
874.77441	22054.9082
873.61719	22241.98047
872.45898	21973.38086
871.30078	22285.49805
870.14258	22161.48633
868.9834	22018.07422
867.8252	22523.94531
866.66602	22373.92188
865.50586	22374.86719
864.34668	22565.42773
863.18652	22865.79492
862.02637	22702.66406
860.86621	22877.78125
859.70508	22904.16016
858.54492	22947.65625
857.38379	22868.36914
856.22168	23148.54688
855.06055	23437.11523
853.89844	23258.60352
852.73633	23736.20703
851.57422	23454.32227
850.41113	23750.92578
849.24805	23647.46484
848.08496	23660.0293
846.92188	23743.42383
845.75781	23895.46875
844.59375	23357.87891
843.42969	23995.10938
842.26563	23824.70117
841.10059	23909.74609
839.93652	23586.87695
838.77051	24077.3125
837.60547	23758.68164
836.43945	24057.80664
835.27441	24099.37305
834.10742	24357.40234
832.94141	24360.14258
831.77441	24442.0957
830.6084	24468.18945
829.44043	24271.45703
828.27344	24021.14844
827.10547	24552.35547
825.9375	24372.55078
824.76953	24323.27344
823.60156	24406.56836
822.43262	24363.5332
821.26367	24378.1543
820.09473	24384.10938
818.9248	24293.77344
817.75586	24489.74609
816.58594	24409.88672
815.41504	24710.26172
814.24512	24707.05664
813.07422	24424.00781
811.90332	24670.45898
810.73242	25055.4375
809.56055	24616.36719
808.38965	24960.41016
807.2168	24843.44531
806.04492	25361.95703
804.87305	25020.79297
803.7002	25272.33008
802.52734	25246.54688
801.35352	25273.94141
800.18066	25326.74023
799.00684	25519.98633
797.83301	25436.17383
796.6582	25763.20117
795.48438	25704.64258
794.30957	25709.8418
793.13477	25906.39844
791.95898	25866.61914
790.78418	25601.25195
789.6084	26033.32813
788.43262	26241.85352
787.25586	26214.23828
786.07914	26112.11133
784.90234	26232.95703
783.72559	26198.54297
782.54883	26189.47656
781.37109	26301.30273
780.19336	26041.45117
779.01563	26456.43555
777.83691	25979.94727
776.6582	26292.64258
775.47949	26412.04492
774.30078	26628.77539
773.12109	26554.83203
771.94238	26563.39844
770.7627	26838.81445
769.58203	26351.26953
768.40234	26581.80078
767.22168	26670.19141
766.04102	26637.69336
764.85938	26914.10156
763.67871	26669.58594
762.49707	26903.20117
761.31543	27051.91992
760.13281	27181.38281
758.9502	27200.65039
757.76758	27221.84766
756.58496	26902.5625
755.40234	26963.5957
754.21875	27465.97852
753.03516	27182.21289
751.85156	27255.26758
750.66699	27568.80469
749.48242	27415.51367
748.29785	27810.79688
747.11328	27323.76563
745.92773	27279.74805
744.74316	27537.12891
743.55762	27528.53516
742.37109	27696.83594
741.18555	27668.83203
739.99902	27813.44531
738.8125	27686.01953
737.62533	27874.39258
736.4375	27835.04688
735.25098	27942.86914
734.0625	27995.73047
732.87533	27888.40234
731.68652	28174.36523
730.49805	28329.56836
729.30957	28248.93164
728.12012	28342.64648
726.93164	28360.4043
725.74219	28159.36133
724.55176	28609.5918
723.3623	28687.53516
722.17188	28532.08984
720.98145	28466.77539
719.79004	28888.34375
718.59961	28377.52344
717.4082	28880.29883
716.2168	28707.0293
715.02441	28751.76367
713.83301	28567.63281
712.64063	28647.53711
711.44824	28758.60547
710.25488	28800.22461
709.06152	28910.72852
707.86816	28966.46289
706.6748	28904.63086
705.48145	29085.48047
704.28711	29161.32422
703.09277	29303.86133
701.89746	28968.95703
700.70313	29211.37695
699.50781	28911.67578
698.3125	29088.6543
697.11621	29363.56445
695.9209	29209.55469
694.72461	29650.98242
693.52832	29327.19336
692.33105	29487.93164
691.13379	29380.98828
689.93652	29451.30664
688.73926	29611.08398
687.54199	29793.47461
686.34375	29291.04492
685.14551	30113.36133
683.94727	29933.82031
682.74805	30119.02148
681.54883	30714.58789
680.34961	32080.86719
679.15039	33262.86719
677.9502	33252.24219
676.7534	32939.26953
675.5498	32286.65625
674.34863	31377.91211
673.14844	30779.44531
671.94727	30749.13867
670.74609	30435.53711
669.54395	30234.10938
668.3418	30238.37891
667.13965	30439.88477
665.9375	30129.53711
664.73438	30305.41016
663.53125	30289.69727
662.32813	30402.48633
661.12345	30523.2168
659.9209	30421.34766
658.7168	30420.94336
657.5127	30507.39453
656.30859	30450.2793
655.10352	31034.02734
653.89844	30974.07813
652.69336	31212.48828
651.4873	31402.76367
650.28125	31403.95313
649.0752	31786.18945
647.86914	31307.90625
646.66211	31117.4707
645.45605	30974.41602
644.24805	31346.73633
643.04102	31149.16016
641.83301	31106.56055
640.62534	31475.47852
639.41699	32152.17969
638.20898	32859.26172
637.34343	33365.04297
635.79102	34864.85547
634.58203	36657.21094
633.37207	38173.51563
632.16211	38546.04297
630.95215	38533.75391
629.74219	37267.3125
628.53125	36143.52734
627.32031	34714.28125
626.10938	33448.35547
624.89746	33063.8125
623.68652	32171.48438
622.47461	32005.27539
621.26172	31766.55859
620.0498	31201.77148
618.83691	31663.46289
617.62402	31250.66797
616.41113	31441.41016
615.19727	31512.17188
613.9834	31143.78711
612.76953	30911.06641
611.55469	31264.79102
610.34082	31156.89063
609.12598	31100.06641
607.91113	31415.25391
606.69531	30968.78516
605.47949	31527.75195
604.26367	31280.05664
603.04785	31046.44141
601.83105	31151.59961
600.61426	31223.41016
599.39746	31054.4082
598.18066	30790.57227
596.96289	31162.9668
595.74512	31171.38477
594.52734	31240.9375
593.30859	31039.13281
592.09082	31005.22852
590.87109	31255.97266
589.65234	31551.29688
588.43359	31312.9707
587.21387	31500.64844
585.99316	31663.17773
584.77344	31331.4082
583.55273	31333.20898
582.33203	31518.87891
581.11133	31228.95898
579.89063	31892.67969
578.66895	31448.35547
577.44727	31163.36523
576.22461	31698.38086
575.00293	31567.96484
573.78027	31261.24805
572.55762	31553.21875
571.33398	31161.85742
570.11133	31969.78516
568.8877	31653.13281
567.66309	31750.77344
566.43945	31633.47266
565.21484	31534.08203
563.99023	31736.36133
562.76563	31389.05469
561.54004	31365.8125
560.31445	31199.27539
559.08887	31827.73633
557.8623	31201.33984
556.63672	31649.11328
555.41016	31315.51563
554.18262	31362.58594
552.95605	31354.14453
551.72852	31119.06641
550.50098	31003.72266
549.27344	31614.75195
548.04492	31302.86523
546.81641	31226.6582
545.58789	31233.37695
544.3584	31013.73242
543.12891	31253.28125
541.89941	31150.5918
540.66992	31966.26172
539.44043	31734.3418
538.20996	31615.73633
536.97949	31781.05469
535.74805	31939.61914
534.5166	31500.5625
533.28516	31909.76367
532.05371	31709.30469
530.82227	31729.57227
529.58984	31479.39844
528.35742	31890.03125
527.12402	31476.5332
525.8916	31141.75391
524.6582	30956.52344
523.4248	31210.57422
522.19043	31293.70508
520.95703	31200.02148
519.72168	31044.96289
518.4873	30881.32617
517.25293	30826.5
516.01758	30586.88672
514.78223	31042.875
513.5459	30555.28711
512.31055	30813.70313
511.07422	30899.48438
509.83691	30404.34766
508.60059	30381.84961
507.36328	30597.17383
506.12598	30930.99805
504.88867	30789.38281
503.65039	30736.02734
502.41211	30478.15234
501.17383	30437.78711
499.93457	30140.46875
498.69629	30750.68164
497.45703	30405.77734
496.2168	30387.07813
494.97754	30289.16797
493.7373	30337.78125
492.49707	30172.09766
491.25586	29949.37695
490.01563	30401.06445
488.77441	30521.53516
487.53223	30290.86523
486.29102	29983.19727
485.04883	30222.45703
483.80664	30173.18359
482.56348	29978.36328
481.32129	29945.95703
480.07813	29770.06445
478.83496	30019.84375
477.59082	29762.22266
476.34668	29638.69727
475.10254	29673.29297
473.8584	29624.83789
472.61328	29338.67578
471.36816	29547.93555
470.12305	29435.21289
468.87793	29107.09766
467.63184	29542.91797
466.38574	28996.82031
465.13965	29332.8125
463.89258	28867.77344
462.64551	29154.07813
461.39844	29347.34961
460.15039	29313.32227
458.90332	29458.98633
457.65527	29113.05664
456.40625	29149.01758
455.1582	29100.2168
453.90918	29162.75977
452.66016	29134.5
451.41016	29043.43555
450.16113	29017.77344
448.91113	28795.32422
447.66016	28784.13477
446.41016	28470.41992
445.15918	28729.66797
443.9082	28702.31641
442.65723	28618.29883
441.40527	28331.77344
440.15332	28296.24219
438.90137	28363.79883
437.64844	28123.11719
436.39551	28133.23047
435.14258	27919.13281
433.88965	28125.25781
432.63574	27855.81836
431.38184	27884.8125
430.12793	27627.97266
428.87305	27798.89258
427.61914	27741.89258
426.36426	27492.83398
425.1084	27422.27734
423.85352	27311.22852
422.59766	27129.69336
421.34082	26865.77539
420.08496	26911.68555
418.82813	26938.80664
417.57129	26676.71484
416.31445	26592.91992
415.05664	26637.51172
413.79883	26361.26758
412.54102	26569.23047
411.28223	25872.21875
410.02441	26221.60547
408.76563	26007.92969
407.50586	25761.67969
406.24707	25481.06836
404.9873	25737.50391
403.72656	25463.14844
402.4668	25666.25586
401.20605	25459.80273
399.94531	25290.28906
398.68457	25254.82227
397.42285	25297.72656
396.16113	25020.74805
394.89941	24865.88477
393.63672	25292.4668
392.37534	24937.90625
391.1123	25156.69922
389.84863	24693.56055
388.58496	24787.82031
387.32227	24780.38086
386.05762	24841.13086
384.79395	24606.42578
383.5293	24570.55859
382.26465	24375.70703
381.25346	24365.8457
379.73438	24222.63672
378.46875	24070.71875
377.20313	23991.06445
375.93652	23691.29688
374.66992	24038.27539
373.40332	23800.02539
372.13672	23760.28711
370.86914	23368.42383
369.60156	23244.07813
368.33398	23389.04688
367.06543	23434.36914
365.79785	23291.64258
364.5293	23165.70117
363.25977	22859.52148
361.99023	22830.30078
360.7207	22938.03516
359.45117	22546.69336
358.18164	22538.44922
356.91113	22296.96094
355.64063	22733.45703
354.36914	22553.02539
353.09766	22839.81055
351.82617	22932.85547
350.55469	22765.44531
349.2832	23516.95313
348.01074	24709.16992
346.73828	26186.73633
345.46484	28010.21484
344.19141	30128.4375
342.91797	31331.91406
341.64453	30559.43164
340.37012	29597.84375
339.0957	27915.74219
337.82129	26661.01367
336.54688	25345.09961
335.27148	23722.84766
333.99609	23013.74805
332.7207	22221.69727
331.44434	21556.25977
330.16797	21219.2168
328.8916	20885.26758
327.61426	20667.8418
326.33691	19983.66016
325.05957	20011.16016
323.78223	19769.60938
322.50391	19708.97852
321.22559	19023.50977
319.94727	19223.10156
318.66797	18582.84961
317.38965	18604.56445
316.10938	18335.82031
314.83008	18246.05664
313.5498	17801.68164
312.26953	17606.44727
310.98926	17394.67188
309.70801	17529.26172
308.42676	16778.81836
307.14551	16612.9707
305.86426	17058.63672
304.58203	16668.31836
303.2998	16164.07617
302.0166	15799.23438
300.73438	15809.78418
299.45117	15287.26269
298.16797	15089.24121
296.88379	14909.60742
295.59961	14993.81445
294.31543	14584.45801
293.03125	14682.18848
291.74609	14165.78809
290.46094	14298.2959
289.17578	13731.49805
287.88965	13879.29981
286.60352	14132.90137
285.31738	13271.68457
284.03125	12957.75391
282.74414	13198.35742
281.45703	12792.96875
280.16895	12829.27734
278.88184	12429.79102
277.59375	12508.67285
276.30469	12497.03027
275.0166	12255.54883
273.72754	11696.78418
272.43848	11852.75781
271.14941	11361.97559
269.85938	11081.44922
268.56934	10939.49609
267.2793	11156.88672
265.98828	10712.40918
264.69727	10214.74805
263.40625	9967.91894
262.11426	9820.60059
260.82324	9575.65332
259.53027	9298.43359
258.23828	9113.25098
256.94531	9040.99219
255.65234	8428.19141
254.35938	8330.71094
253.06641	7913.26807
251.77246	7788.43945
250.47852	7907.89453
249.18359	7655.18457
247.88867	7499.94678
246.59375	7536.71533
245.29883	6775.21582
244.00293	6927.42484
242.70703	6482.30371
241.41113	6661.19092
240.11523	6009.67188
238.81836	5979.86035
237.52148	5555.71728
236.22363	5712.43311
234.92578	5320.77145
233.62793	4958.96826
232.33008	4311.17188
231.03125	3931.89453
229.7334	4346.81543
228.43359	3435.99365
227.13477	3176.87256
225.83496	2524.11377
224.53516	3047.49414
223.23438	2752.1228
221.93457	2196.40747
220.63379	1914.42944
219.33203	1550.52966
218.03125	1712.18652
216.72949	1574.72717
215.42773	1071.33618
214.12532	925.804873
212.82227	470.167212
211.51953	270.692053
210.2168	49.0389434
208.91309	163.691442
207.60938	-110.23134
206.30566	57.6567934
205.00098	34.3448934
203.69629	-66.791623
202.3916	110.660871
201.08691	35.9322746